SPECTRUM DATA FILE
SpectrumCount:	1
PixelCount:	2500
UserName:	diederichbenedict
SampleName:	
LightSource:	
Comments:	
DeviceName:	S_mini
DeviceManufacturer:	Laser 2000
DeviceSerialNo:	20061

Name:	last spectrum
Date:	2020-03-12T14:06:26.7133611+01:00
ExposureTime:	0.1
TemporalAvg:	5
IntensityUnit:	nW/nm
CCDLoadLevel:	1.109239
Temperature:	25.15433
DiagramColor:	200

Wavelength [nm]	Intensity1
201.6614	0.002351002
202.0036	0.003531389
202.3458	-0.003611853
202.688	-0.0009622317
203.0302	-0.0009088055
203.3724	-0.006356546
203.7146	-0.008558184
204.0568	0.0006461079
204.399	-0.007651133
204.7411	0.002348556
205.0833	-0.008416963
205.4254	-0.00352652
205.7675	-0.00154335
206.1097	0.004880901
206.4518	-0.004252598
206.7939	0.0009856506
207.136	-0.01237622
207.4781	-0.002236501
207.8201	-0.003943438
208.1622	0.001302027
208.5043	-0.003415115
208.8463	0.004282539
209.1884	-0.007027337
209.5304	-0.01034509
209.8725	-0.004826475
210.2145	-0.0009844019
210.5565	-0.004520965
210.8985	0.003068572
211.2405	0.003501632
211.5825	-0.0003418588
211.9244	0.0004707254
212.2664	0.001483697
212.6084	-0.009379209
212.9503	-0.0001781691
213.2922	-0.007926909
213.6342	0.002195435
213.9761	0.003841743
214.318	0.003021693
214.6599	0.001787205
215.0018	-0.002356299
215.3437	-0.000935854
215.6856	0.003360148
216.0275	0.002114793
216.3693	-0.003154281
216.7112	-0.0002720963
217.053	-0.00539556
217.3948	-0.003516604
217.7367	0.00204179
218.0785	0.002909147
218.4203	-0.000626609
218.7621	0.002448232
219.1039	0.003319073
219.4456	-0.001275895
219.7874	8.16585E-06
220.1292	-0.0007115058
220.4709	0.001405267
220.8127	0.003670096
221.1544	0.001108582
221.4962	0.001719047
221.8379	-0.0003072841
222.1796	0.0008965404
222.5213	0.0004588933
222.863	6.343577E-05
223.2047	-0.001484462
223.5463	0.0003401453
223.888	0.001638144
224.2297	0.001453844
224.5713	0.004277171
224.9129	0.001844459
225.2546	-0.0001927123
225.5962	0.0008198916
225.9378	0.000597265
226.2794	0.0004245762
226.621	-0.001070331
226.9626	-0.003525932
227.3042	-0.001020022
227.6458	-0.001929223
227.9873	0.0009068208
228.3289	-0.0009027502
228.6704	0.00210198
229.0119	0.001422251
229.3535	0.003200109
229.695	0.001586155
230.0365	0.0003310178
230.378	-0.001182111
230.7195	-0.001904167
231.0609	-0.001208705
231.4024	0.001442965
231.7439	-0.0005793459
232.0853	0.001694546
232.4268	0.0008241562
232.7682	-0.001537326
233.1096	-0.001214422
233.451	0.001621946
233.7924	-0.0009143322
234.1339	-0.0006663335
234.4752	7.335407E-05
234.8166	0.0008665293
235.158	0.0003272336
235.4994	-0.0003547605
235.8407	-0.0008265286
236.1821	-0.0005789071
236.5234	-0.0006729563
236.8647	-0.001520538
237.206	-0.001063651
237.5473	2.545408E-05
237.8886	-0.0008608499
238.2299	-0.0003215516
238.5712	0.0005381404
238.9125	0.0008446688
239.2538	-0.0005118927
239.595	0.0007859709
239.9362	-0.0005622944
240.2775	-0.001363053
240.6187	0.001370889
240.9599	0.0006568522
241.3011	0.0004779882
241.6423	-0.001044738
241.9835	0.0008260414
242.3247	5.994946E-05
242.6659	-0.001016093
243.007	-0.0001064835
243.3482	-0.001215779
243.6893	-0.0006608092
244.0305	0.0006619955
244.3716	-0.0004365821
244.7127	-0.001161691
245.0538	0.0004798256
245.3949	0.001029251
245.736	-0.0005044031
246.0771	-0.001311345
246.4182	-0.0001262358
246.7592	0.0001883411
247.1003	7.243938E-05
247.4414	-0.0004178478
247.7824	0.0009652529
248.1234	-0.001615793
248.4644	0.0003606345
248.8055	-0.0005572221
249.1465	0.000526625
249.4874	0.0003402995
249.8284	0.0001696123
250.1694	-0.0006913742
250.5104	-9.236386E-05
250.8513	-9.013677E-05
251.1923	-0.000916613
251.5332	0.001097633
251.8741	0.00108121
252.215	0.0007990493
252.556	-0.001207967
252.8969	-0.001198328
253.2377	-0.0008798167
253.5786	-0.0007693429
253.9195	0.0006915526
254.2604	-0.0009591144
254.6012	0.001245013
254.9421	0.0002095864
255.2829	-0.001471248
255.6237	-0.0003547759
255.9645	0.0002681001
256.3053	-0.0005016195
256.6461	0.0009224484
256.9869	-0.001787816
257.3277	5.116703E-05
257.6685	0.00119969
258.0092	0.0003106392
258.35	-0.001211449
258.6907	0.0003376646
259.0315	0.0005283
259.3722	-7.397671E-05
259.7129	-0.0004693126
260.0536	0.0002525663
260.3943	-0.0001929175
260.735	-0.0004105632
261.0757	-0.0003897138
261.4164	0.0007589677
261.757	0.0005688192
262.0977	0.0004865439
262.4383	-0.001528041
262.779	0.001214466
263.1196	-0.0003691234
263.4602	0.0006609251
263.8008	0.0001403884
264.1414	0.000839481
264.482	-3.462327E-05
264.8225	0.0004909215
265.1631	-0.000554496
265.5037	0.00064704
265.8442	-0.0006876281
266.1848	-0.0007028662
266.5253	-0.0004581611
266.8658	0.001082991
267.2063	-0.0006695623
267.5468	0.0001928372
267.8873	0.0002604134
268.2278	-0.0007259649
268.5683	-0.001305924
268.9088	0.000656181
269.2492	-0.001619696
269.5897	5.685315E-05
269.9301	-0.001343465
270.2705	0.0001649133
270.611	-0.0007550402
270.9514	-0.0001055056
271.2917	-0.0003269549
271.6321	-0.0001286656
271.9725	0.0001456703
272.3129	-0.0003248448
272.6533	9.40137E-05
272.9936	0.0007112009
273.334	-0.000125161
273.6743	-7.88262E-05
274.0146	-0.0002074874
274.3549	0.000171149
274.6953	0.0007224293
275.0356	0.001329305
275.3759	-0.0001793955
275.7161	-0.0009695436
276.0564	-0.0007573821
276.3966	-0.0007218153
276.7369	0.001204174
277.0771	-0.0006434797
277.4174	-0.0005645235
277.7576	-0.0004939788
278.0978	-0.0002491953
278.438	-0.0001811076
278.7782	0.0009342824
279.1184	-0.0006131667
279.4586	0.0008301403
279.7987	-0.0004065543
280.1389	0.00118064
280.479	-5.580802E-05
280.8192	-0.0004358211
281.1593	0.00017218
281.4994	0.0009520365
281.8395	0.001405245
282.1796	8.132797E-05
282.5197	0.001214796
282.8598	0.000679786
283.1999	-0.000136801
283.5399	0.0005298234
283.88	-0.0002661981
284.2201	6.224647E-06
284.5601	0.0001531819
284.9001	0.0004328299
285.2401	0.0004112099
285.5801	-0.000546718
285.9201	-0.000576189
286.2601	-7.362464E-05
286.6001	-0.0004726083
286.9401	0.0002957463
287.28	-0.001322157
287.62	-0.0005490174
287.9599	-0.0001772435
288.2998	-0.0003362295
288.6398	0.0002374336
288.9797	0.0002754252
289.3196	-6.023822E-05
289.6595	-0.0006382498
289.9994	-0.0003070236
290.3392	-0.0005193953
290.6791	-0.0004528922
291.019	0.0005981654
291.3588	-0.0001911327
291.6986	0.0003258162
292.0385	0.0007160712
292.3783	-0.0001971226
292.7181	-0.0001377613
293.0579	-0.0006571894
293.3976	-0.0005964321
293.7374	-0.000326992
294.0772	0.0002022708
294.417	-0.0002957513
294.7567	-0.0004227969
295.0964	-0.0005447957
295.4362	0.0001015933
295.7759	-9.90624E-05
296.1156	-0.0007929496
296.4553	-0.000187681
296.795	0.0005144104
297.1347	2.922266E-05
297.4744	-0.0008025203
297.814	0.000169879
298.1537	0.0002534936
298.4933	1.545978E-05
298.8329	5.188123E-05
299.1726	-0.0007699783
299.5122	-5.937436E-05
299.8518	-0.0006299452
300.1914	0.0001310168
300.531	-0.0005086008
300.8706	-7.891665E-05
301.2101	0.0005409846
301.5497	-2.275695E-05
301.8892	-0.0002848748
302.2288	-0.001135214
302.5683	-0.0003187415
302.9078	-0.0002018698
303.2473	0.0003238673
303.5868	5.642809E-05
303.9263	-0.000155479
304.2658	-0.0004344006
304.6053	-0.000626551
304.9447	0.0005037992
305.2842	0.0007065219
305.6236	-0.0007747623
305.9631	-5.833209E-05
306.3025	-0.0001679977
306.6419	-0.0003928366
306.9813	-0.0003004407
307.3207	1.816441E-05
307.6601	6.3186E-05
307.9995	-0.000739622
308.3388	3.313888E-05
308.6782	-0.0002403201
309.0175	0.000677579
309.3568	0.0002954721
309.6962	6.442143E-05
310.0355	-6.847609E-05
310.3748	-0.0001423445
310.7141	9.599447E-05
311.0534	-0.0001287301
311.3927	-0.000212128
311.7319	-0.0002843633
312.0712	5.151517E-05
312.4104	-0.0001174242
312.7497	-0.0002666795
313.0889	0.0002229591
313.4281	-0.0002240511
313.7673	9.243845E-05
314.1065	7.518716E-05
314.4457	-0.0004829949
314.7849	-0.0002682339
315.1241	0.000226431
315.4632	0.0004876126
315.8024	-9.127278E-05
316.1415	0.000287984
316.4807	0.000316086
316.8198	-5.313667E-06
317.1589	0.0006369677
317.498	-0.0005800938
317.8371	0.0005978863
318.1762	0.0004984142
318.5153	-7.832876E-05
318.8543	0.000413464
319.1934	0.0003928228
319.5324	0.0005511629
319.8714	-9.350394E-05
320.2105	0.0001552934
320.5495	0.0004406585
320.8885	0.0009003748
321.2275	0.0002705681
321.5665	-0.0001658412
321.9054	0.0002382479
322.2444	0.0002425059
322.5834	0.000191929
322.9223	-0.000411942
323.2612	-0.0005216549
323.6002	-0.0003507033
323.9391	0.0004512916
324.278	0.0003628916
324.6169	0.001057724
324.9558	0.0004346658
325.2946	0.0002843777
325.6335	-0.000194403
325.9724	-0.0005372009
326.3112	-0.0003708629
326.6501	-0.0004132264
326.9889	-0.0006876514
327.3277	0.0001036714
327.6665	-0.0003496615
328.0053	-0.0002798959
328.3441	-0.0001918469
328.6829	7.483552E-05
329.0216	-0.0003287292
329.3604	0.0002480094
329.6992	0.0001386339
330.0379	0.0008216976
330.3766	-0.000206813
330.7153	-0.0003961746
331.054	-0.0004482205
331.3927	0.0004539766
331.7314	0.000376384
332.0701	9.646666E-05
332.4088	7.902704E-05
332.7474	0.0001779663
333.0861	0.0002147476
333.4247	-0.0001409461
333.7634	-0.0002360378
334.102	0.0003524821
334.4406	2.35997E-06
334.7792	-0.0001960275
335.1178	0.0004751632
335.4564	0.0003062107
335.7949	-0.000438834
336.1335	0.0003143788
336.472	0.0002314729
336.8106	0.0007728501
337.1491	0.000714376
337.4876	0.0005083745
337.8261	-0.0002945703
338.1646	-2.324337E-05
338.5031	0.0002557195
338.8416	-0.0005410184
339.1801	0.0001419017
339.5186	-0.0002348529
339.857	-0.0005933733
340.1954	0.0003404269
340.5339	0.0007483154
340.8723	-0.0005563916
341.2107	-0.0003839827
341.5491	0.0001717924
341.8875	-0.0002529929
342.2259	-6.979699E-06
342.5642	0.000286439
342.9026	0.0003028729
343.241	-5.183306E-05
343.5793	0.0001184198
343.9176	3.935799E-05
344.256	0.0006394378
344.5943	0.0001233704
344.9326	0.0004262117
345.2708	4.603318E-05
345.6091	-0.0001581963
345.9474	4.857276E-05
346.2856	-0.0002348407
346.6239	0.0001014426
346.9622	0.0001901402
347.3004	0.0001266464
347.6386	0.0004324661
347.9768	-0.0004056072
348.315	0.0001682966
348.6532	0.0002148226
348.9914	0.0002462425
349.3296	-0.0003889425
349.6677	-0.000238293
350.0059	0.0003009414
350.344	-1.36507E-05
350.6821	-0.0002980881
351.0203	-0.0001547182
351.3584	0.000218623
351.6965	0.0006914732
352.0345	0.0005772551
352.3726	-0.000505067
352.7107	2.100095E-05
353.0488	-0.0007170038
353.3868	0.0001407102
353.7249	-0.0006636141
354.0629	-5.900869E-05
354.4009	-0.0003986837
354.7389	0.0003128748
355.0769	9.98828E-05
355.4149	5.323024E-05
355.7529	0.000380404
356.0908	0.0001610026
356.4288	0.0007821694
356.7667	2.163078E-05
357.1047	8.732481E-05
357.4426	-0.0002374259
357.7805	2.178138E-05
358.1184	0.000360755
358.4563	0.0003059971
358.7942	6.670865E-05
359.1321	0.0002900991
359.4699	-4.826493E-05
359.8078	0.0002651226
360.1457	-7.713347E-05
360.4835	0.0004916628
360.8213	-0.0008185521
361.1591	0.0001697053
361.4969	-0.0004433226
361.8347	-0.000644682
362.1725	9.697538E-07
362.5103	-0.0002842802
362.8481	-0.000215053
363.1858	0.0001204436
363.5236	-0.000649447
363.8613	0.000544454
364.199	0.0005503243
364.5367	0.0002331018
364.8744	9.2157E-05
365.2121	8.36959E-05
365.5498	3.599061E-05
365.8875	0.0004961503
366.2251	-0.0001147303
366.5628	-0.0002393137
366.9004	2.412533E-05
367.2381	-0.000362251
367.5757	0.000190493
367.9133	-0.0001655414
368.2509	-6.344526E-05
368.5885	-0.000422741
368.9261	3.434512E-05
369.2636	-2.527086E-05
369.6012	0.000243175
369.9388	-0.0001054965
370.2763	0.0003643184
370.6138	0.0008538333
370.9513	-0.0006431718
371.2888	-0.0004423404
371.6263	-0.0002714929
371.9638	-0.0005188059
372.3013	0.0002320317
372.6388	-0.0002608926
372.9762	0.0002549204
373.3137	-1.298098E-06
373.6511	-0.0001666478
373.9885	-0.0005449893
374.326	-0.0002220811
374.6634	-0.0003337407
375.0008	-0.0004242288
375.3381	0.0001312114
375.6755	-0.000361921
376.0129	-1.995527E-05
376.3502	-0.0001797612
376.6876	-0.0006986249
377.0249	-0.0002614709
377.3622	7.94439E-05
377.6996	-0.0001387237
378.0368	-0.0002347754
378.3741	0.000364469
378.7114	0.0002226819
379.0487	0.0005603253
379.386	0.0004296954
379.7232	0.000425597
380.0605	0.0002435262
380.3977	-0.0001683568
380.7349	-0.0001841922
381.0721	0.0003480711
381.4093	0.0002329781
381.7465	0.0002301774
382.0837	-9.079282E-05
382.4208	0.0002858693
382.758	0.00017559
383.0951	0.0004740929
383.4323	-0.0002102833
383.7694	-0.0005054121
384.1065	0.0001406293
384.4436	-0.0001405764
384.7807	-2.192268E-05
385.1178	1.242624E-05
385.4549	0.0002042991
385.7919	0.0002618159
386.129	-0.0004383924
386.466	-9.07837E-05
386.8031	6.870626E-05
387.1401	-0.0001041664
387.4771	-0.0003036216
387.8141	0.0001426702
388.1511	-0.0002984591
388.4881	0.000234413
388.825	2.712825E-05
389.162	7.679904E-05
389.4989	0.0001748338
389.8359	-1.099333E-05
390.1728	0.0002391576
390.5097	-0.000376699
390.8466	-0.0003903808
391.1835	-0.0001246225
391.5204	0.0001066179
391.8573	4.337626E-05
392.1942	-7.004711E-05
392.531	0.0001261385
392.8679	0.0004471191
393.2047	-0.0002765466
393.5415	-3.941385E-05
393.8783	0.0001873436
394.2151	0.0003710612
394.5519	-0.0001416337
394.8887	-1.488323E-05
395.2255	0.0002491513
395.5622	0.0003101171
395.899	3.39188E-05
396.2357	-0.0001568113
396.5724	-0.00037975
396.9091	0.0002515874
397.2459	-0.0003888937
397.5826	0.0002511622
397.9193	-1.476743E-05
398.2559	0.000297264
398.5926	0.0001039085
398.9293	-0.0005294458
399.2659	-6.570638E-06
399.6025	1.177E-05
399.9391	-0.0001939207
400.2758	0.000398333
400.6124	0.0005939627
400.9489	0.0005046459
401.2855	0.0002235046
401.6221	-0.0002846903
401.9587	5.13752E-05
402.2952	2.556855E-05
402.6317	8.671018E-05
402.9683	0.0001968367
403.3048	-9.133136E-05
403.6413	-0.0001001618
403.9778	0.0002835138
404.3143	-8.925096E-05
404.6508	-6.515074E-05
404.9872	3.96896E-05
405.3237	-5.424699E-05
405.6601	0.0001583576
405.9966	-0.0003172268
406.333	8.79034E-05
406.6694	-8.143787E-05
407.0058	-0.0003921105
407.3422	-0.0001277804
407.6786	8.782151E-05
408.0149	0.0002149409
408.3513	0.0001471821
408.6876	0.0001083764
409.024	-8.724107E-05
409.3603	-0.0002956707
409.6966	0.0002375945
410.0329	-0.0001841493
410.3692	-8.615278E-05
410.7055	0.000375383
411.0418	0.0002794875
411.378	0.0001314798
411.7143	-5.9368E-05
412.0505	-1.609644E-06
412.3867	-0.0001414924
412.723	-7.13476E-05
413.0592	9.759952E-05
413.3954	1.115658E-05
413.7316	0.0001041087
414.0677	0.0001238425
414.4039	0.000242724
414.7401	6.528245E-05
415.0762	-5.954157E-05
415.4124	5.95541E-05
415.7485	0.0002718412
416.0846	4.359824E-05
416.4207	2.820525E-05
416.7568	-0.0002176438
417.0929	0.0001765483
417.4289	-0.0003177784
417.765	-7.343404E-05
418.101	0.000281155
418.4371	-4.353759E-05
418.7731	0.00030134
419.1091	-8.161371E-05
419.4451	0.0002968998
419.7811	0.0003216298
420.1171	0.0002034748
420.4531	4.014189E-05
420.789	-0.0002940284
421.125	-5.96577E-05
421.4609	-8.66794E-05
421.7968	-7.899531E-05
422.1328	-8.893626E-05
422.4687	-0.0003765654
422.8046	-0.0002546705
423.1405	0.0001084481
423.4763	-1.634564E-05
423.8122	0.0002067168
424.1481	0.000367726
424.4839	6.906391E-05
424.8197	-0.0001588706
425.1555	0.000317512
425.4914	0.000200205
425.8272	0.0002553303
426.163	0.0002444459
426.4987	-3.592527E-05
426.8345	2.326265E-05
427.1703	1.304514E-05
427.506	-6.360869E-06
427.8417	-0.0001520189
428.1775	-0.0001784669
428.5132	0.000372048
428.8489	0.0002156885
429.1846	0.0003386076
429.5203	5.730845E-05
429.8559	0.0002100677
430.1916	-0.0001524437
430.5273	-4.390169E-05
430.8629	-6.320369E-05
431.1985	-0.000228039
431.5341	-8.399779E-05
431.8697	0.0005925669
432.2053	-0.0001004883
432.5409	-0.0001410501
432.8765	1.904922E-05
433.212	0.0001956799
433.5476	0.0002160519
433.8831	8.934434E-05
434.2187	3.640051E-05
434.5542	0.0001315374
434.8897	0.0002980751
435.2252	0.0002363366
435.5607	0.0004030162
435.8961	-4.798209E-05
436.2316	-7.314597E-05
436.5671	0.0002189627
436.9025	-2.710402E-05
437.2379	6.802669E-05
437.5734	0.0002790234
437.9088	1.759064E-05
438.2442	-0.0001581647
438.5796	2.287582E-05
438.9149	8.68982E-05
439.2503	0.0001202824
439.5857	0.0002164162
439.921	0.0003255052
440.2563	-0.000154016
440.5916	0.0002626956
440.927	8.714598E-05
441.2623	-2.30671E-05
441.5976	8.988723E-05
441.9328	0.0001398879
442.2681	-0.0002160881
442.6034	-1.369941E-05
442.9386	0.0002584334
443.2738	0.0002271913
443.6091	8.62124E-05
443.9443	8.067097E-05
444.2795	0.0001409303
444.6147	-0.0004001916
444.9498	-0.0004180028
445.285	-0.0003107912
445.6202	4.262642E-05
445.9553	8.976626E-05
446.2904	-0.0003340018
446.6256	-0.0002154703
446.9607	4.763986E-05
447.2958	0.0004086169
447.6309	-0.0001032297
447.966	-4.071995E-05
448.301	-8.928013E-05
448.6361	0.0003375558
448.9711	5.2593E-05
449.3062	-0.0001283205
449.6412	0.0004326164
449.9762	-0.000152466
450.3112	-0.0002676443
450.6462	5.83532E-05
450.9812	9.490951E-06
451.3162	-0.0001992626
451.6511	-0.0004218277
451.9861	0.000265175
452.321	0.0001611995
452.6559	0.0003293948
452.9908	-0.0004622138
453.3257	0.0001001847
453.6606	-0.0001910126
453.9955	2.887593E-05
454.3304	0.000135115
454.6653	5.02362E-05
455.0001	0.0002265544
455.3349	8.62442E-05
455.6698	0.0001421479
456.0046	5.968708E-05
456.3394	-5.047261E-05
456.6742	8.875859E-05
457.009	2.459428E-05
457.3437	-0.0002691892
457.6785	-7.154184E-05
458.0132	0.0003737315
458.348	0.0003465182
458.6827	0.0001021019
459.0174	0.000129444
459.3521	0.0002301877
459.6868	0.000369933
460.0215	8.225854E-05
460.3562	0.0002205202
460.6908	-0.0002062921
461.0255	-0.0005054327
461.3601	-9.78223E-05
461.6947	-0.0001726541
462.0294	0.000245926
462.364	-0.0002478351
462.6985	-7.984831E-05
463.0331	0.0001336408
463.3677	8.282829E-05
463.7023	-4.848432E-05
464.0368	0.0006118777
464.3713	-0.0001118438
464.7059	6.127394E-05
465.0404	0.0001810171
465.3749	0.0002463837
465.7094	7.537855E-05
466.0439	-3.976705E-05
466.3783	-0.0001138721
466.7128	0.0001163961
467.0472	9.384659E-05
467.3817	-6.102441E-05
467.7161	-0.000264791
468.0505	4.713903E-05
468.3849	-3.948284E-05
468.7193	-9.831359E-05
469.0537	-9.808626E-05
469.3881	-0.000128374
469.7224	8.067316E-05
470.0568	0.0002195967
470.3911	-5.501899E-05
470.7254	-5.373407E-05
471.0597	1.229172E-05
471.394	3.895721E-05
471.7283	-6.748945E-05
472.0626	-0.0001885324
472.3969	-2.827134E-05
472.7311	0.0002426254
473.0654	5.260491E-07
473.3996	-0.0001416227
473.7338	3.558679E-05
474.0681	-0.0001975853
474.4023	0.0002862392
474.7364	0.000205207
475.0706	0.0003736988
475.4048	-0.000115612
475.7389	2.779928E-05
476.0731	0.0001979588
476.4072	-0.0003271298
476.7413	0.000121356
477.0754	-4.492927E-05
477.4095	-0.0001399591
477.7436	-8.665265E-05
478.0777	-0.0001193885
478.4118	5.780194E-06
478.7458	0.0001278586
479.0799	-0.0001256634
479.4139	-0.0001083917
479.7479	-0.0001833324
480.0819	5.755832E-05
480.4159	-2.28578E-05
480.7499	-3.096339E-05
481.0839	0.0001916014
481.4178	-0.0002339283
481.7518	4.11683E-05
482.0857	2.875583E-05
482.4196	8.620614E-05
482.7536	-0.0001842418
483.0875	-2.948836E-05
483.4214	-0.0003126527
483.7552	1.911204E-05
484.0891	8.38525E-05
484.423	8.850313E-05
484.7568	-0.0001869079
485.0907	-0.000100211
485.4245	1.55034E-05
485.7583	0.0001888461
486.0921	0.0001092433
486.4259	0.0001103562
486.7597	0.000157248
487.0935	-0.0002068537
487.4272	6.724656E-05
487.761	2.220807E-05
488.0947	-7.504998E-05
488.4284	-0.0002012363
488.7621	0.0001805122
489.0958	0.0001313407
489.4295	0.0001095806
489.7632	-0.0001504462
490.0969	-1.715731E-05
490.4305	-0.0002234296
490.7642	8.772153E-06
491.0978	0.0001301856
491.4314	0.0001928089
491.765	3.229611E-05
492.0986	-0.0003425563
492.4322	-4.903314E-06
492.7658	7.763871E-06
493.0994	-0.0001107027
493.4329	8.298652E-05
493.7664	0.0001190142
494.1	8.521137E-05
494.4335	3.752227E-05
494.767	-9.147964E-05
495.1005	2.059271E-05
495.434	-0.0002652144
495.7675	-1.563222E-06
496.1009	0.0001763847
496.4344	-0.0001616602
496.7678	0.000132614
497.1012	0.0001519364
497.4346	0.0001130964
497.768	-0.0001960916
498.1014	-0.0002539092
498.4348	2.768318E-05
498.7682	5.723546E-05
499.1015	-5.169551E-06
499.4349	0.0001184903
499.7682	-0.0001094838
500.1015	1.597046E-05
500.4348	4.985824E-05
500.7682	0.0001555056
501.1014	-0.0002943712
501.4347	3.843958E-05
501.768	5.952291E-05
502.1012	-2.746904E-05
502.4345	0.0001814337
502.7677	0.0001550461
503.1009	0.0001492194
503.4341	0.0002658649
503.7673	-0.0001013483
504.1005	-4.009674E-05
504.4337	-0.0002475609
504.7668	-6.917806E-05
505.1	-0.0002632261
505.4331	0.0003030033
505.7663	0.0002251102
506.0994	0.000205023
506.4325	-0.0002651461
506.7656	0.0002298029
507.0987	3.754507E-05
507.4317	0.000312959
507.7648	0.0002914546
508.0978	0.0001438281
508.4308	0.0001913363
508.7639	6.722192E-05
509.0969	-5.562098E-05
509.4299	0.0002276492
509.7629	-7.765209E-05
510.0959	0.0003547587
510.4288	-9.525862E-05
510.7618	0.0003418873
511.0947	0.0002982457
511.4276	6.618135E-05
511.7606	2.205816E-05
512.0934	0.0004327703
512.4263	-2.645928E-05
512.7592	0.0002083775
513.0921	-0.0002876282
513.425	-1.98085E-05
513.7578	-0.0001148304
514.0906	0.0001168554
514.4235	8.821227E-05
514.7563	-0.0002633198
515.0891	7.068103E-05
515.4219	0.000438682
515.7546	0.0001386177
516.0874	0.0002858696
516.4202	-8.77542E-05
516.7529	0.0003828544
517.0856	0.0002727628
517.4184	-8.117434E-05
517.7511	0.0001006902
518.0837	-0.0002028412
518.4164	0.0003186724
518.7491	0.0007842493
519.0818	0.0001814736
519.4144	0.0001841675
519.7471	0.0001997381
520.0797	0.0004301948
520.4123	0.000303035
520.7449	0.0005992003
521.0775	-8.310212E-05
521.4101	0.0002397891
521.7427	0.000678769
522.0752	0.0003507628
522.4078	5.195341E-05
522.7403	0.0001044685
523.0728	0.0003261527
523.4053	0.0001604619
523.7378	7.194105E-05
524.0703	0.0003908556
524.4028	0.0004037161
524.7352	0.0002676032
525.0677	0.0006028707
525.4001	0.0004837004
525.7325	0.0005448878
526.0649	0.0005461491
526.3973	0.0005568056
526.7297	0.0008475308
527.0621	0.0007988769
527.3945	0.001059816
527.7269	0.001084396
528.0592	0.001333801
528.3915	0.001819645
528.7238	0.001909384
529.0562	0.002388299
529.3884	0.00265597
529.7207	0.004110596
530.053	0.004914341
530.3853	0.01098285
530.7175	0.04710571
531.0497	0.1882794
531.382	0.3610505
531.7142	0.4822977
532.0464	0.5257064
532.3786	0.4773169
532.7108	0.3340232
533.0429	0.1635087
533.3751	0.0591496
533.7072	0.02082826
534.0394	0.009199509
534.3715	0.005523068
534.7036	0.004385814
535.0356	0.00273063
535.3677	0.002270654
535.6998	0.00162287
536.0319	0.00175945
536.364	0.001364496
536.696	0.000989598
537.028	0.0008521858
537.36	0.001227237
537.692	0.0009714234
538.024	0.0007487219
538.356	0.0007558533
538.6879	0.0005994805
539.0199	0.0005909284
539.3518	0.0009899334
539.6838	0.0006571369
540.0157	0.0009871671
540.3476	0.0005320821
540.6794	0.0005598539
541.0114	0.0003925762
541.3432	0.0005827445
541.675	0.0007544159
542.0069	0.0007383457
542.3387	0.0006660238
542.6706	0.000475169
543.0024	0.0004652563
543.3342	0.0004666715
543.666	0.000392046
543.9977	0.0007802574
544.3295	0.0002520751
544.6613	0.0002685335
544.993	-0.0001608783
545.3247	4.247082E-07
545.6564	0.0003005907
545.9882	0.0006079525
546.3198	0.0002163598
546.6515	-2.931436E-05
546.9832	0.0002559505
547.3148	0.0004590339
547.6465	0.0003438255
547.9781	0.0002495791
548.3097	-7.425834E-05
548.6413	0.0002423677
548.9729	0.0004533562
549.3045	-0.0001351348
549.636	-8.606958E-05
549.9677	-0.0001157985
550.2992	0.000158471
550.6307	5.308557E-06
550.9622	5.865784E-05
551.2938	0.0002157885
551.6252	0.0001526082
551.9567	-0.0001428606
552.2882	-4.229616E-06
552.6196	0.0004654869
552.9511	0.0002484423
553.2825	0.0002656817
553.614	0.0003622739
553.9454	1.504889E-05
554.2768	-6.794587E-05
554.6082	0.0001464649
554.9396	0.0001222904
555.2709	-1.1706E-05
555.6023	-0.0004331223
555.9336	0.0003057965
556.265	0.0001032694
556.5963	0.0002987056
556.9276	0.0004486719
557.2589	0.0002474745
557.5901	0.0001866713
557.9214	0.0003350512
558.2527	0.0001959547
558.5839	0.0002845333
558.9152	-6.835668E-05
559.2463	0.000606863
559.5776	0.0002312389
559.9088	-3.30014E-05
560.2399	3.672145E-05
560.5711	0.0003203965
560.9023	0.0001081172
561.2335	0.0004676709
561.5646	-9.03508E-05
561.8957	-0.0002683913
562.2268	9.592974E-06
562.5579	-0.0001172102
562.889	-0.0002349954
563.2201	8.357844E-05
563.5511	2.225812E-05
563.8822	0.0002727768
564.2132	0.0003523515
564.5443	0.0003937584
564.8752	8.247852E-05
565.2062	-5.868756E-05
565.5372	3.846633E-05
565.8682	-0.000122262
566.1992	0.0001996281
566.5302	0.0001031003
566.8611	-0.000226019
567.192	0.0004720452
567.5229	0.0003056937
567.8538	0.0002998449
568.1848	-5.657583E-05
568.5156	-0.0001456467
568.8465	-4.864728E-05
569.1774	0.0001831108
569.5082	8.075627E-05
569.8391	-0.0001640804
570.1699	-0.0001237694
570.5007	-0.0003474692
570.8314	-1.302931E-05
571.1622	0.0002490259
571.493	1.681378E-05
571.8237	-0.0001939862
572.1545	-0.0003735383
572.4852	1.53634E-05
572.816	0.0002194432
573.1467	0.0001987876
573.4774	2.151048E-06
573.808	-0.0002340199
574.1387	-0.0003399347
574.4694	-5.191948E-05
574.8	-0.0001227434
575.1307	-0.0001392879
575.4613	0.0001293711
575.7919	0.0003077369
576.1225	-0.000512644
576.4531	0.0002158449
576.7837	8.741697E-05
577.1143	0.0004067571
577.4448	-0.000356514
577.7753	-0.0001792989
578.1058	-0.0004699122
578.4363	0.0002267913
578.7668	0.0005649997
579.0974	3.080189E-06
579.4279	-0.0004494577
579.7583	0.0003772495
580.0887	0.0001653396
580.4192	0.0002047849
580.7496	7.351502E-05
581.08	8.143967E-05
581.4105	-0.00040106
581.7408	-3.986125E-05
582.0712	0.0001258251
582.4016	-3.7466E-05
582.7319	0.0002026456
583.0623	0.0001226682
583.3926	-0.0003764566
583.7229	0.0001772378
584.0532	0.0002696938
584.3835	0.0001093849
584.7138	0.000110109
585.0441	0.0004450992
585.3743	0.0002107585
585.7045	-0.0001061586
586.0348	-0.0004723971
586.365	-0.0002612132
586.6952	3.535354E-05
587.0254	0.000179115
587.3556	3.774834E-06
587.6857	0.0001946624
588.0159	1.289681E-05
588.3461	0.0001843651
588.6762	-0.0001512437
589.0063	-3.833473E-05
589.3364	-9.858276E-05
589.6665	3.569808E-05
589.9966	-7.358391E-05
590.3267	0.0003510608
590.6567	-0.0002206133
590.9868	0.0001149137
591.3168	-0.0002459653
591.6468	-0.0003593738
591.9768	-0.0002860649
592.3068	-0.0002690093
592.6368	0.0001482595
592.9667	0.0001507997
593.2967	0.0003631534
593.6266	2.613672E-05
593.9566	0.0002215892
594.2865	-0.000135755
594.6165	-8.269334E-06
594.9464	3.48077E-05
595.2762	-9.066815E-05
595.6061	0.0003805665
595.9359	0.0001950411
596.2658	0.0001686409
596.5956	0.0002193401
596.9254	0.000647869
597.2552	0.0001892022
597.585	0.000439498
597.9148	0.0001121302
598.2446	0.0004945333
598.5743	0.0003859755
598.9041	0.0001505122
599.2338	-0.0004305323
599.5635	1.190999E-05
599.8932	-0.0003566435
600.223	0.0001815399
600.5526	0.0002157766
600.8823	0.000190343
601.212	-0.0001783495
601.5416	0.0001733736
601.8713	0.0002791597
602.2009	0.0005802936
602.5305	-0.0003138609
602.86	0.0001516521
603.1896	0.0002291548
603.5192	-2.355782E-05
603.8488	7.554419E-05
604.1783	0.0005363569
604.5079	-0.0002389928
604.8374	0.0003291149
605.1669	-0.000136528
605.4964	0.0001772185
605.8259	0.0001305461
606.1553	-0.0001856999
606.4848	7.882636E-06
606.8143	0.0001473732
607.1437	-0.0001843975
607.4731	0.0004094755
607.8025	-2.466025E-05
608.1319	-7.767651E-05
608.4613	-0.0002028016
608.7906	6.717058E-05
609.12	0.0005164576
609.4493	0.0001110016
609.7787	-0.0001928488
610.108	0.0003951038
610.4373	0.0003129737
610.7666	0.0008599372
611.0959	-0.0007431135
611.4252	2.13807E-05
611.7544	-0.000104712
612.0837	-0.000203639
612.4129	9.090192E-05
612.7421	0.0001633721
613.0714	5.898461E-05
613.4005	0.0009140997
613.7297	0.0007063026
614.0588	0.000306919
614.388	0.0004880452
614.7172	5.233779E-05
615.0463	-0.0002302198
615.3754	-0.0004217657
615.7045	-0.0002352656
616.0336	6.310036E-05
616.3627	0.0003704011
616.6918	-0.0003250217
617.0208	-0.0002092086
617.3499	0.0001954854
617.6789	0.000196438
618.0079	-0.0005276093
618.3369	8.819364E-05
618.6659	0.0002428823
618.9949	-0.0002414176
619.3239	0.00044618
619.6528	0.0004323401
619.9818	0.0005119342
620.3107	4.592121E-05
620.6396	9.238143E-05
620.9685	-0.0001762181
621.2974	-0.0001248505
621.6262	-0.0002316103
621.9551	0.0001913031
622.2839	0.0001291729
622.6128	-0.0004172449
622.9417	-0.000103407
623.2704	-0.0007160118
623.5992	-0.00028291
623.928	-0.00035118
624.2568	-0.0004915729
624.5856	-4.459788E-05
624.9143	0.0003709844
625.243	0.0005232215
625.5718	0.0002348018
625.9005	-0.0001318904
626.2292	0.000112596
626.5579	0.0002605483
626.8865	0.0001380397
627.2152	-5.447356E-05
627.5439	0.0003613004
627.8725	-7.554363E-05
628.2011	0.0001679144
628.5297	-9.98734E-05
628.8583	0.0001713555
629.1869	0.0003095717
629.5155	-0.000386488
629.8441	-9.407258E-05
630.1726	0.0001923503
630.5011	-0.0001044521
630.8297	-0.0002114074
631.1581	0.0004618608
631.4866	0.0001451656
631.8151	-2.030441E-05
632.1436	-0.0002892536
632.472	-1.652029E-05
632.8005	-5.455732E-05
633.1289	0.0002479709
633.4573	6.171475E-05
633.7857	-0.0002774923
634.1141	0.0001521235
634.4425	0.0004036125
634.7709	-0.0002815309
635.0992	-0.0001858771
635.4276	0.0002693419
635.7559	0.0003562171
636.0842	0.0005825919
636.4125	2.960911E-06
636.7408	0.0001625773
637.0691	0.001176761
637.3973	-0.0002772286
637.7256	-0.0004781091
638.0538	-7.587473E-05
638.3821	-0.000110992
638.7103	0.0004255313
639.0385	6.684633E-06
639.3666	-0.000136096
639.6948	-0.000225038
640.023	5.170142E-05
640.3511	-0.0002161563
640.6793	0.0003288844
641.0074	0.0003046161
641.3355	-1.833031E-05
641.6636	0.0001041735
641.9917	0.0001402495
642.3198	0.0005832483
642.6478	5.686882E-05
642.9758	6.688376E-05
643.3039	0.0002853169
643.6319	0.000295171
643.9599	-0.0001113202
644.2879	0.0007963924
644.6158	-4.576821E-05
644.9438	6.864859E-05
645.2718	0.000151845
645.5997	-0.0003603398
645.9277	-8.20352E-05
646.2556	-0.0005638186
646.5835	-0.00014363
646.9114	-6.270935E-05
647.2393	-0.0007568251
647.5671	0.0002727771
647.895	-0.0001461235
648.2228	0.0004076736
648.5506	-0.0002676158
648.8784	-5.31126E-05
649.2062	9.950832E-05
649.534	0.0005632653
649.8618	-0.0001765469
650.1896	-0.0005480599
650.5173	0.0003006265
650.845	0.000319759
651.1727	-0.0004176919
651.5004	0.0004431225
651.8281	-0.000492032
652.1558	0.0001442991
652.4835	0.0001067433
652.8112	-1.37026E-05
653.1388	-0.0002143678
653.4664	0.0005316541
653.7941	-7.586437E-05
654.1216	0.0005494639
654.4492	2.677695E-05
654.7768	0.0004694903
655.1044	0.000309533
655.4319	-0.0001380802
655.7595	-0.0002990907
656.087	4.985714E-05
656.4145	-2.913105E-05
656.742	-0.0004340689
657.0695	-0.0001188717
657.397	0.0002395577
657.7244	-0.0002243454
658.0519	-0.0004067191
658.3793	0.0004000245
658.7067	-0.0006741615
659.0341	-0.0001421545
659.3615	0.0001457672
659.6889	-0.0005035333
660.0163	0.0005080928
660.3436	-0.0002259814
660.671	0.0001453578
660.9983	-0.0003395364
661.3256	0.0003018853
661.6529	-0.0001797913
661.9802	0.0002303536
662.3075	0.0002325832
662.6348	0.0007645112
662.962	0.0001841149
663.2892	0.0004808498
663.6165	0.0003606074
663.9437	0.0001218093
664.2709	0.0004387325
664.5981	0.000105767
664.9252	-0.000455702
665.2524	-0.0004998962
665.5795	0.0003853903
665.9067	0.0009518692
666.2338	0.0002501378
666.5609	4.815291E-05
666.888	-0.0002039703
667.2151	0.0002790691
667.5421	-0.0004865107
667.8692	0.0004213933
668.1962	0.0006202178
668.5233	-0.0002194781
668.8503	-0.0003280707
669.1772	0.0003176361
669.5043	0.000101972
669.8312	0.0002410119
670.1582	0.0002103963
670.4851	0.000195972
670.8121	-0.0005194817
671.139	0.0005628753
671.4659	9.075029E-05
671.7928	5.652559E-05
672.1197	0.000624645
672.4465	0.000477564
672.7734	-0.0001442702
673.1002	0.000321666
673.4271	0.0007046317
673.7539	-0.000313852
674.0807	-0.0004552279
674.4075	-0.0006983603
674.7343	8.631782E-05
675.061	0.0002127367
675.3878	-7.075837E-05
675.7145	-1.123587E-06
676.0412	-8.670121E-05
676.3679	0.0009055188
676.6946	7.547549E-05
677.0213	-0.0007246055
677.348	0.0003420236
677.6746	0.0002979559
678.0013	-1.712924E-05
678.3279	0.0004123784
678.6545	-0.0002079287
678.9811	0.0002744632
679.3077	-0.0001909032
679.6343	-0.0003292165
679.9609	-0.0003560956
680.2874	-3.050978E-05
680.614	-0.0004785206
680.9405	0.0006589033
681.267	-9.234748E-05
681.5935	0.0004255947
681.92	0.000585096
682.2465	-0.0002270377
682.5729	0.0001875196
682.8994	0.001128673
683.2258	0.0001821612
683.5522	-0.0002939079
683.8786	-0.0004237326
684.205	4.960331E-05
684.5314	0.0007104866
684.8577	0.0006748422
685.1841	-0.0005510399
685.5104	0.0005949818
685.8367	-1.872534E-05
686.1631	0.0003249665
686.4894	-0.000539782
686.8157	-0.0002006959
687.1419	-0.001057729
687.4682	-0.0003470161
687.7944	0.00085692
688.1207	0.0003581216
688.4469	-3.959191E-05
688.7731	-0.0001908316
689.0992	-0.000687334
689.4254	0.0004648216
689.7516	0.0004532618
690.0778	-0.0007998988
690.4039	0.0004247949
690.73	0.0006215184
691.0562	0.0001997179
691.3822	0.00116503
691.7083	0.0002793893
692.0344	-0.000172985
692.3604	6.256899E-05
692.6865	0.0001778453
693.0125	0.0002140454
693.3386	5.781408E-05
693.6646	0.0008274353
693.9905	0.0005276533
694.3165	0.0005465176
694.6425	0.0002759806
694.9684	-0.0007088665
695.2944	0.0004628007
695.6203	-0.0001466233
695.9462	-8.464833E-05
696.2721	-0.0003821109
696.598	0.0007825777
696.9238	-0.0002668205
697.2497	0.0004801318
697.5756	-0.0003094521
697.9014	0.0005666535
698.2272	0.0006928878
698.553	-0.0003819583
698.8788	0.000381688
699.2045	0.0001426699
699.5303	-0.0005139817
699.8561	0.0004800695
700.1818	-0.0005687673
700.5075	0.000737078
700.8332	-0.00113305
701.1589	0.0002037593
701.4846	-0.0004082075
701.8102	-4.514863E-05
702.1359	-0.000577576
702.4615	0.001124823
702.7872	0.0004044818
703.1128	0.0003606899
703.4384	-0.0004800495
703.764	-1.828279E-06
704.0895	-0.0003359334
704.4151	0.0003568098
704.7407	-0.00107139
705.0662	-0.0005304452
705.3917	7.63893E-05
705.7172	0.0004145994
706.0427	-2.810788E-05
706.3682	0.0004978465
706.6937	-0.000200761
707.0191	0.0005989916
707.3445	0.0001497913
707.67	-0.0006160593
707.9954	-0.0003869082
708.3207	-0.0005712904
708.6461	-1.729755E-05
708.9715	0.0004957089
709.2969	0.001315887
709.6222	-0.0004676335
709.9476	-0.0009691301
710.2728	-0.000675694
710.5981	-0.0004115772
710.9235	-0.0002203499
711.2487	-0.0001294225
711.574	0.001167657
711.8992	-0.0005701088
712.2245	0.0008940513
712.5497	-0.0002574671
712.8749	-3.356493E-05
713.2001	-0.0002240079
713.5253	0.0004665248
713.8504	-0.0001001545
714.1756	-5.320313E-05
714.5007	-0.0002936028
714.8259	-0.0001227425
715.1509	0.0006587544
715.4761	-0.000438487
715.8011	-0.0002970159
716.1262	0.0001185427
716.4512	0.0001050674
716.7763	0.00059573
717.1013	2.299544E-05
717.4263	0.0005214303
717.7513	0.0006307294
718.0764	0.0002627278
718.4013	0.0005592568
718.7263	0.0003176365
719.0512	5.569595E-05
719.3762	0.0003840634
719.701	0.0002926062
720.026	0.0007084907
720.3509	0.000122317
720.6758	0.0001084924
721.0006	-0.0004888399
721.3254	0.0002618835
721.6503	0.0008265949
721.9752	0.0006545087
722.2999	0.0004678903
722.6248	0.0001893769
722.9495	-0.000293045
723.2743	0.000651137
723.5991	0.0007218802
723.9238	-0.000352155
724.2485	0.0003514065
724.5732	-0.0002934037
724.8979	-0.0001142638
725.2226	0.000254356
725.5473	-0.0005069436
725.8719	0.001069048
726.1966	0.0006625825
726.5212	0.000599413
726.8458	-0.0004772923
727.1705	-0.0003925036
727.4951	-0.001142666
727.8196	-0.0006522693
728.1442	8.487518E-05
728.4688	-0.0002392646
728.7933	-0.0009541819
729.1178	7.001852E-05
729.4423	0.0002737319
729.7668	0.0005608452
730.0912	-1.828065E-05
730.4157	-0.0001769983
730.7402	-0.000174146
731.0646	0.0005794317
731.389	0.0001997165
731.7135	0.0005264824
732.0378	-0.0001381974
732.3622	-0.000570357
732.6866	-0.0003302619
733.011	-0.0005660554
733.3353	0.0009713302
733.6597	0.0008448561
733.9839	-0.0002224894
734.3083	0.001820449
734.6326	0.000848791
734.9568	0.001229529
735.2811	0.001173873
735.6053	0.001139423
735.9296	0.0003454839
736.2538	-0.001095783
736.578	0.0004738443
736.9022	0.0005529438
737.2264	0.0001868487
737.5505	-0.001075147
737.8747	-0.0003663427
738.1988	0.0002863506
738.5229	0.001345373
738.847	3.423404E-05
739.1711	3.095953E-05
739.4952	-0.0002796139
739.8193	-0.0006030481
740.1433	3.779786E-05
740.4673	0.001177911
740.7914	0.0001436255
741.1154	-0.0004152969
741.4394	-0.0002543681
741.7634	-0.000314888
742.0873	0.0008181944
742.4113	0.0006198784
742.7352	-0.001384384
743.0591	0.0004488264
743.3831	6.067134E-05
743.707	0.0009327404
744.0309	-0.001373937
744.3547	-0.0001144743
744.6786	0.0003958759
745.0024	0.0005110798
745.3263	0.0005438625
745.6501	-0.0006643775
745.9739	0.0002293411
746.2977	-0.0004634297
746.6215	-0.0007105165
746.9452	-0.0003438552
747.269	0.0003029307
747.5927	0.000795604
747.9164	-0.0004633256
748.2401	0.001441364
748.5638	-0.0002469669
748.8875	0.0006896997
749.2111	-0.0007281785
749.5348	-0.001349915
749.8584	-0.0003085945
750.1821	-0.000966759
750.5056	0.0007082971
750.8292	-0.001801893
751.1528	0.0002227928
751.4764	-0.002570211
751.7999	-0.0008951245
752.1235	0.000650923
752.447	0.001010076
752.7705	0.000737399
753.094	0.0005195158
753.4175	-0.001172321
753.741	0.001879148
754.0644	0.0008274947
754.3878	1.08081E-05
754.7112	0.0002041339
755.0347	0.0005787717
755.358	-0.001304648
755.6815	-0.0003539175
756.0048	-0.002138419
756.3282	-0.0002650932
756.6515	-0.001691573
756.9749	0.0004819934
757.2982	0.0001358259
757.6215	0.0006416343
757.9447	-3.418305E-05
758.268	-0.0008774787
758.5912	-0.0002674841
758.9145	-1.854816E-05
759.2377	-2.77278E-05
759.5609	-0.000412736
759.8842	-0.0002510496
760.2073	0.0003022921
760.5305	-0.0003348168
760.8536	0.0001403726
761.1768	-3.711422E-05
761.4999	-0.001212397
761.8231	-0.0006322865
762.1461	-0.0003555221
762.4692	-0.0008572982
762.7923	0.0004992699
763.1154	-0.0004765691
763.4384	-0.0006905396
763.7614	0.0002859814
764.0845	0.0007837383
764.4075	0.0003473115
764.7304	0.0009438115
765.0534	-0.0004507291
765.3763	0.001711227
765.6993	0.000228826
766.0222	-0.0008468157
766.3452	-8.265241E-05
766.6681	-0.0006840915
766.991	-0.0007272597
767.3138	-0.0003807417
767.6367	0.0002166119
767.9595	0.0003648596
768.2823	-7.149702E-05
768.6052	-0.00119477
768.928	-0.000808028
769.2508	-0.001019465
769.5735	0.0009568009
769.8963	0.0004696763
770.2191	0.0006541105
770.5418	0.001088646
770.8645	-0.0003738242
771.1872	-2.124035E-05
771.5099	0.001254339
771.8326	0.0002606105
772.1553	0.001873287
772.4779	0.002771468
772.8005	0.001155371
773.1232	-0.0001262238
773.4457	0.001263599
773.7684	0.001101128
774.0909	0.0006203956
774.4135	0.001647176
774.736	-0.002006281
775.0586	0.0004215539
775.3811	0.0003647899
775.7036	-0.0004233037
776.0261	-0.0006420283
776.3486	0.0001253671
776.671	-0.0006978379
776.9935	0.0002952653
777.3159	0.001298119
777.6383	-0.001211139
777.9608	0.0009447093
778.2831	-0.001466645
778.6055	-0.0008611314
778.9279	-0.0004869285
779.2502	-5.289841E-05
779.5726	-0.0003875573
779.8949	-0.004388082
780.2172	-0.002751492
780.5395	-0.0002496016
780.8618	0.001482002
781.184	0.0005969946
781.5063	0.0004206217
781.8285	-0.0004716073
782.1507	0.0005790202
782.4729	-0.0006571095
782.7951	0.0006041195
783.1173	-0.0005025503
783.4395	0.0008226074
783.7616	0.001063479
784.0837	-0.0001776708
784.4059	-0.0004038207
784.728	-0.00032994
785.05	-0.0002050658
785.3721	-0.0004253237
785.6942	0.0002699694
786.0162	0.001761874
786.3383	-0.001380607
786.6603	0.001833714
786.9823	0.0004412297
787.3043	0.0002927025
787.6263	-0.0008511417
787.9482	0.002192438
788.2702	0.001146616
788.5921	0.0003223984
788.9141	0.0004444363
789.236	0.0002766756
789.5579	0.001725596
789.8797	0.001012017
790.2016	0.0006824876
790.5234	-0.0006735288
790.8453	8.835334E-05
791.1671	0.002636761
791.4889	-0.001029024
791.8107	-0.0003701593
792.1324	-0.0006375139
792.4542	-0.0009467793
792.7759	7.568693E-05
793.0977	0.001539497
793.4194	0.002025531
793.7411	0.001924845
794.0628	0.001422777
794.3845	-0.0005836599
794.7061	0.0001158375
795.0278	0.001880481
795.3494	0.00381649
795.671	0.00516458
795.9926	0.002689498
796.3142	0.001320289
796.6358	0.00186602
796.9573	0.001999751
797.2789	0.002254075
797.6005	0.003324472
797.9219	0.0002859702
798.2435	0.001473559
798.5649	0.00402346
798.8864	0.002001956
799.2079	0.003364964
799.5293	0.003284648
799.8508	0.0038636
800.1722	0.00248626
800.4936	0.005886405
800.8149	0.005590133
801.1363	0.005418541
801.4577	0.01124797
801.779	0.009977482
802.1003	0.01118996
802.4217	0.03271921
802.743	0.04732832
803.0643	0.06439811
803.3855	0.07188725
803.7068	0.06977805
804.028	0.05077733
804.3492	0.02794086
804.6705	0.01810005
804.9916	0.02152629
805.3128	0.03121478
805.634	0.04630568
805.9551	0.06936608
806.2763	0.07085188
806.5974	0.08018475
806.9185	0.07605612
807.2396	0.06495705
807.5607	0.04858505
807.8818	0.03140733
808.2028	0.01416021
808.5239	0.006050354
808.8449	0.003149205
809.1659	-0.0005830328
809.4869	0.001446313
809.8079	0.0008417674
810.1288	0.0005293751
810.4498	0.004233301
810.7707	0.002799487
811.0916	0.0005197532
811.4125	0.002739986
811.7335	0.0009999479
812.0543	0.002410242
812.3752	0.001951079
812.696	0.0001039099
813.0168	0.001505901
813.3376	0.0003915147
813.6584	0.001055218
813.9792	0.0002601221
814.3	-0.001497505
814.6208	-0.001411645
814.9415	-0.0008676412
815.2623	0.0004276087
815.583	-0.001718744
815.9037	-0.0008758584
816.2244	0.0005733837
816.545	-0.0003243349
816.8657	0.001956494
817.1863	-0.0003502104
817.507	0.0003630482
817.8276	-0.001964206
818.1482	0.0007791581
818.4688	-0.002036411
818.7894	0.0003039694
819.1099	0.003275086
819.4304	-0.0003024747
819.751	-0.001248232
820.0715	0.001788282
820.392	0.0002325403
820.7125	0.001422831
821.0329	-0.0008272378
821.3534	0.001472882
821.6738	-0.001789353
821.9943	0.001069711
822.3146	0.00194132
822.635	-0.0008086637
822.9554	-0.002132812
823.2758	0.0008253992
823.5961	-0.001252708
823.9164	0.002669374
824.2368	-0.0008496031
824.5571	0.0001827523
824.8774	0.0002257697
825.1976	-0.001043248
825.5179	-0.001492803
825.8381	-0.001825126
826.1584	-0.003773312
826.4786	-0.0008504405
826.7988	-0.0005394608
827.119	-0.001312482
827.4391	-0.0001428757
827.7593	0.0004155939
828.0795	0.002164918
828.3996	0.003781268
828.7197	0.002058852
829.0398	0.001997697
829.3599	0.003089533
829.68	0.0008506575
830	0.001717525
830.3201	-0.001393344
830.6401	0.0007211115
830.9601	0.001279825
831.2801	0.0009068652
831.6001	-0.002151865
831.92	0.000453093
832.24	5.841676E-05
832.5599	-0.002417628
832.8798	0.0004349731
833.1998	0.001332662
833.5197	0.0007306555
833.8395	-0.001738917
834.1594	0.001616487
834.4792	0.0001850816
834.7991	0.003994394
835.1189	-0.00205235
835.4387	0.001331506
835.7585	0.001200396
836.0782	0.0008756992
836.398	-0.0006629115
836.7178	0.0008788286
837.0375	-0.0001133801
837.3572	0.001918851
837.6769	0.0009267238
837.9966	-0.00116664
838.3162	-0.0006093697
838.6359	-0.000662709
838.9555	-0.00120383
839.2751	-0.0001405878
839.5948	0.0002493967
839.9144	0.002578879
840.2339	-0.0002757279
840.5535	-0.000521865
840.873	0.001222266
841.1926	0.0003279203
841.5121	-0.0007763893
841.8316	-0.0001698713
842.1511	0.0004033261
842.4706	0.002701384
842.79	0.0003717546
843.1095	0.0003996477
843.4289	-0.001097239
843.7484	-0.001538812
844.0677	0.001470779
844.3871	0.004543487
844.7065	-0.001142116
845.0259	-0.0003370795
845.3452	-0.002914268
845.6645	0.0008936661
845.9838	0.001015763
846.3031	0.001713181
846.6224	0.003137836
846.9417	0.003517432
847.2609	-0.0009545222
847.5801	0.0003668343
847.8994	0.002877763
848.2186	-0.0001993941
848.5378	-0.001686851
848.8569	0.002149228
849.1761	0.0009114408
849.4953	3.283E-05
849.8144	0.0008024411
850.1335	-0.0005877583
850.4526	-0.0001308592
850.7717	-0.0005290069
851.0908	0.0008944998
851.4099	-0.0007550206
851.7289	0.001308985
852.0479	0.001489965
852.3669	-0.0003777488
852.6859	0.0003052381
853.0049	0.001859146
853.3239	0.004691125
853.6428	-0.001627827
853.9617	0.001208689
854.2807	0.0004817015
854.5996	0.001966707
854.9185	0.0007626865
855.2374	0.001293291
855.5562	0.005343301
855.8751	-0.002513141
856.1939	-0.00133323
856.5127	0.003041688
856.8315	-0.002354857
857.1503	0.002264377
857.4691	0.001742336
857.7878	-0.000104584
858.1066	-0.003120372
858.4253	9.369839E-05
858.744	-0.002692853
859.0627	7.323077E-05
859.3814	-0.00424363
859.7001	0.003194276
860.0187	0.001875858
860.3373	-0.00296829
860.6559	-0.001943795
860.9745	0.005719588
861.2932	0.0006277061
861.6117	0.003521425
861.9303	-0.0005840732
862.2488	0.001004789
862.5674	-0.0008881129
862.8859	-0.0009286907
863.2043	-0.003263041
863.5229	0.0009750841
863.8413	-0.002580413
864.1598	-0.00151078
864.4782	0.0006643164
864.7966	0.007545317
865.1151	-0.003466207
865.4335	-0.0006276228
865.7518	-0.003490132
866.0702	0.003334275
866.3885	-0.001994244
866.7068	0.0007028176
867.0252	-0.0005401099
867.3435	0.001202032
867.6618	-0.002813655
867.98	0.001160395
868.2983	-0.002159189
868.6166	0.0005107423
868.9348	0.00478737
869.253	-0.003953826
869.5712	-0.004728097
869.8894	7.869903E-06
870.2075	-0.0009683499
870.5257	0.002708153
870.8438	0.001266786
871.1619	-0.0009128882
871.48	0.001339292
871.7982	-0.003242862
872.1162	-0.002199281
872.4343	-0.0009832188
872.7523	-0.0006192974
873.0704	-0.001426985
873.3884	0.001979747
873.7064	0.002062188
874.0244	-0.002091583
874.3423	-0.0004558265
874.6603	-0.002328443
874.9782	0.002755877
875.2961	0.004918819
875.6141	-0.003484217
875.9319	-5.317665E-05
876.2498	0.0009691984
876.5677	0.002049732
876.8856	0.001462604
877.2034	-0.001012566
877.5212	-0.01303986
877.839	-0.006055466
878.1567	0.002762888
878.4745	0.0006916752
878.7923	0.0008242918
879.11	0.0003607468
879.4277	0.003046082
879.7455	3.688225E-05
880.0632	0.003887879
880.3809	0.001417063
880.6985	0.001471028
881.0162	-0.001605852
881.3338	0.002748171
881.6514	-0.002069465
881.969	0.001546542
882.2866	0.002531826
882.6042	-0.0007506175
882.9218	-0.0008557672
883.2393	0.001754173
883.5568	-4.91954E-07
883.8743	0.004983903
884.1918	0.002946084
884.5093	0.0008563808
884.8267	-0.001238507
885.1442	0.004908337
885.4616	0.00361164
885.7791	0.004544087
886.0964	-0.001642362
886.4138	-0.002385166
886.7312	0.001179885
887.0486	-0.001345358
887.3659	0.001489472
887.6832	-0.003541177
888.0005	0.0003236938
888.3178	0.0009509096
888.6351	0.001043694
888.9524	0.001348786
889.2697	-0.0002051465
889.5869	0.0003736179
889.9041	-0.002045179
890.2213	0.0001447788
890.5385	0.002119278
890.8557	0.00200032
891.1728	-0.004836766
891.4899	-0.002459454
891.8071	0.001505877
892.1242	0.00215721
892.4413	-0.002604047
892.7584	0.005825913
893.0754	0.0009055244
893.3925	-0.003640552
893.7095	-0.001401007
894.0266	3.855828E-06
894.3435	-0.005317037
894.6605	-0.002026997
894.9775	-0.001925888
895.2944	-0.003100135
895.6114	0.002566187
895.9283	0.003637693
896.2452	-0.003354113
896.5621	0.002167952
896.879	0.0003218747
897.1959	0.006381654
897.5127	-0.0005147835
897.8295	-0.002350779
898.1464	-0.006063107
898.4632	0.004725072
898.78	0.0006709438
899.0967	-0.00121836
899.4135	0.002829266
899.7302	-0.004401258
900.0469	-0.00406177
900.3636	-0.004783373
900.6804	0.005974946
900.997	0.002714904
901.3137	0.001548979
901.6304	-0.001346293
901.947	0.003175865
902.2636	-0.002454013
902.5802	-0.004380595
902.8968	-0.005909279
903.2134	0.0005265214
903.5299	0.00178876
903.8464	-0.001938431
904.163	0.0001666434
904.4795	0.001192671
904.796	0.0008108394
905.1124	-0.003877722
905.4289	-0.001443798
905.7454	0.0008396074
906.0618	-0.003232994
906.3782	-0.003575411
906.6946	-4.838605E-05
907.011	0.000980122
907.3273	0.002369416
907.6437	-0.007243654
907.96	0.0002383705
908.2764	-0.005209181
908.5927	-0.005527339
908.9089	-0.0007243719
909.2252	0.003828959
909.5415	0.007728694
909.8577	0.00128499
910.174	-0.003288829
910.4902	-0.004016497
910.8063	0.006187037
911.1226	0.0009206941
911.4387	-0.002199455
911.7549	-0.003088999
912.071	0.004275252
912.3871	0.002281486
912.7032	-0.001682583
913.0193	0.004745856
913.3354	0.004337073
913.6514	0.006672085
913.9675	-0.005792349
914.2835	-0.001934533
914.5995	-0.003345599
914.9155	-0.0007641432
915.2314	0.001965214
915.5474	0.0004835562
915.8634	0.0009489518
916.1793	-0.007535242
916.4952	0.0003358975
916.8111	-0.00353727
917.127	-0.0003873045
917.4429	-0.003627564
917.7587	0.00170813
918.0746	0.0001516008
918.3904	-0.006420176
918.7062	-0.000812786
919.022	-0.001340061
919.3378	0.0003098217
919.6535	-0.002974234
919.9692	0.003304524
920.285	-0.003351104
920.6007	0.004850753
920.9164	0.002133137
921.2321	-0.002319067
921.5477	0.00692981
921.8634	0.001923601
922.179	-0.001935644
922.4946	-0.002447667
922.8102	-0.006664834
923.1258	-0.005279828
923.4414	-0.003356652
923.757	0.006637746
924.0725	0.0007126735
924.388	-0.003068027
924.7035	0.003307436
925.019	0.00441556
925.3345	0.0005188328
925.65	-0.002425297
925.9654	-9.636693E-06
926.2808	0.007617693
926.5963	0.006813392
926.9116	-0.0001588661
927.227	0.007218198
927.5424	-0.004182754
927.8577	-0.0049007
928.173	-0.0005233826
928.4883	0.01151075
928.8036	-0.0005834472
929.119	-0.005279853
929.4342	0.002243499
929.7495	0.0005657838
930.0647	0.001449485
930.3799	-0.00385071
930.6951	-9.132956E-05
931.0103	-0.0003670946
931.3255	0.0004916699
931.6407	-0.003097264
931.9558	0.01743882
932.2709	-0.004435946
932.5861	0.01003536
932.9012	0.008507581
933.2162	0.004603188
933.5313	-0.01047371
933.8464	-0.01349424
934.1614	0.006105
934.4764	0.008800266
934.7914	-0.005988284
935.1064	0.001978273
935.4214	0.001075303
935.7363	0.01029407
936.0513	-0.009344011
936.3661	0.001622596
936.6811	0.003543016
936.996	-0.006371082
937.3109	-0.006823329
937.6257	0.01345155
937.9406	-0.005102849
938.2554	0.00250639
938.5702	-0.0008279015
938.885	-0.004582098
939.1998	0.002516072
939.5145	0.007150524
939.8293	-0.005522025
940.144	0.001568055
940.4587	-0.006895518
940.7734	0.006498529
941.0881	0.003952742
941.4028	0.01477225
941.7174	0.005215656
942.032	-0.003305625
942.3467	-0.007299163
942.6613	-0.00665043
942.9759	0.003751524
943.2905	-0.005165393
943.605	-0.004880296
943.9196	0.004753288
944.2341	0.004947377
944.5486	0.004197136
944.8631	0.006665297
945.1776	0.009556644
945.492	0.001843304
945.8065	-0.003099471
946.1209	0.001086366
946.4353	0.02000811
946.7497	0.0027941
947.0641	0.005537079
947.3784	-0.003865191
947.6928	0.002710561
948.0071	0.003539747
948.3215	0.01067276
948.6357	0.007106695
948.95	-0.009209035
949.2643	0.001886085
949.5786	0.005797777
949.8928	0.0007693899
950.207	0.005766017
950.5212	0.004235772
950.8354	0.001808541
951.1496	0.004561869
951.4637	0.0002022425
951.7779	-0.0002884629
952.092	0.01230882
952.4061	0.005651996
952.7202	0.006648062
953.0343	0.005283969
953.3483	0.006547364
953.6624	0.004582068
953.9764	-0.001942239
954.2904	-0.01663787
954.6044	-0.01575558
954.9184	0.004087664
955.2324	-0.0004784892
955.5463	-0.009598945
955.8602	-0.004104986
956.1742	-0.004028516
956.4881	-0.006545599
956.8019	0.01499966
957.1158	-0.006507666
957.4297	-0.01032146
957.7435	0.009283974
958.0573	0.004724609
958.3712	-0.0009182066
958.6849	-0.01120583
958.9987	0.003303931
959.3124	-0.001583525
959.6262	0.004142025
959.9399	0.01053168
960.2536	0.005453714
960.5673	-0.0291378
960.881	-0.002700989
961.1946	-0.0001438607
961.5083	0.002236809
961.8219	0.009532059
962.1356	0.01639038
962.4491	-0.00541413
962.7627	0.02138925
963.0763	-0.007114436
963.3898	0.006575165
963.7034	-0.02532498
964.0168	0.004540686
964.3304	-0.01372569
964.6439	0.004530677
964.9573	0.004743356
965.2708	0.01045084
965.5842	-0.004224883
965.8976	-0.008956508
966.211	-0.004906769
966.5244	0.0120614
966.8378	0.01490026
967.1511	-0.0002493349
967.4645	-0.01633988
967.7778	0.009283715
968.0911	0.01642772
968.4044	-0.001332815
968.7177	0.004095601
969.0309	-0.01510176
969.3441	-0.008770965
969.6573	-0.01379396
969.9706	0.002616238
970.2838	-0.009907785
970.5969	0.00899725
970.9101	0.0193085
971.2232	0.003869666
971.5363	-0.008624386
971.8494	-0.00599382
972.1625	-0.005718616
972.4756	-0.004007247
972.7887	-0.005008288
973.1017	-0.008198812
973.4147	-0.0173978
973.7278	-0.0009358146
974.0408	-0.003628734
974.3538	-0.0106819
974.6667	0.0001549609
974.9797	-0.002768368
975.2926	0.01053323
975.6055	9.585299E-05
975.9184	0.005960283
976.2313	-0.008714128
976.5441	0.01489283
976.857	-0.006287859
977.1699	-0.004096557
977.4827	-0.004832658
977.7955	0.007816532
978.1082	0.02306706
978.421	-0.01621399
978.7338	0.001832915
979.0465	-0.009027483
979.3592	-0.00588639
979.6719	0.0211279
979.9846	-0.008809322
980.2972	-0.0004727127
980.6099	-0.01617803
980.9225	-0.006975907
981.2352	0.002623873
981.5478	-0.01237686
981.8604	0.006306319
982.173	0.0244635
982.4855	-0.01178285
982.798	0.02138448
983.1105	0.001444299
983.4231	0.01266648
983.7355	0.004008884
984.048	-0.009539274
984.3605	-0.006703143
984.6729	0.008849573
984.9854	0.003309692
985.2978	0.03422933
985.6102	-0.0294613
985.9225	0.00161533
986.2349	-0.004269869
986.5472	0.01498171
986.8596	-0.00836881
987.1719	0.03900271
987.4842	-0.000710251
987.7964	0.0007221331
988.1087	0.002466735
988.421	0.0004517284
988.7332	-0.02426638
989.0454	-0.001077706
989.3576	-0.01201023
989.6698	0.008286445
989.9819	-0.02161027
990.2941	0.01239234
990.6062	0.02164757
990.9183	0.005195443
991.2304	0.01934983
991.5425	-0.01363297
991.8546	0.001848829
992.1666	0.0004054291
992.4786	-0.01763553
992.7906	0.01841867
993.1027	-0.00096161
993.4147	-0.005930491
993.7266	-0.007284027
994.0386	0.004748028
994.3505	0.01169758
994.6624	0.02005491
994.9743	0.03328083
995.2862	-0.007525066
995.5981	-0.003048954
995.9099	0.01518742
996.2217	-0.01496151
996.5336	0.008548825
996.8453	-0.007461754
997.1572	0.02051986
997.4689	0.003331463
997.7806	0.009249834
998.0924	-0.02633355
998.4041	-0.01032911
998.7158	0.0215297
999.0275	-0.01330644
999.3392	-0.01098952
999.6508	-0.0005493761
999.9625	0.001678122
1000.274	-0.01322192
1000.586	0.002270861
1000.897	0.0238614
1001.209	0.01911188
1001.52	0.006425977
1001.832	0.01324529
1002.143	-0.02880116
1002.455	-0.03312092
1002.766	-1.217695E-05
1003.078	-0.002646921
1003.389	-0.02794966
1003.701	0.006529933
1004.012	0.05184367
1004.324	-0.01226804
1004.635	-0.01320462
1004.946	-0.02305506
1005.258	0.01800812
1005.569	-0.002516745
1005.88	-0.005706633
1006.192	-0.02555794
1006.503	0.01632318
1006.814	-0.01987873
1007.126	-0.01479729
1007.437	0.004683683
1007.748	-0.002543467
1008.059	0.02745095
1008.37	0.04794565
1008.682	-0.02367903
1008.993	-0.009005014
1009.304	-0.02704887
1009.615	0.00927832
1009.926	0.01918827
1010.237	0.01092323
1010.548	-0.008375697
1010.859	0.01000826
1011.17	0.007275003
1011.481	-0.01837596
1011.792	-0.02128973
1012.103	0.05437066
1012.414	0.01016444
1012.725	0.04985699
1013.036	0.01016046
1013.347	0.009540316
1013.658	-0.02439708
1013.969	0.0323337
1014.28	-0.01642435
1014.591	-0.04602732
1014.901	-0.0105209
1015.212	0.0105773
1015.523	-0.009708201
1015.834	-0.02876799
1016.145	-0.006628533
1016.455	0.03434905
1016.766	-0.003199183
1017.077	0.004294198
1017.388	0.0376034
1017.698	0.02289064
1018.009	0.002463413
1018.32	0.02593389
1018.63	0.02373544
1018.941	-0.0227688
1019.252	0.002109816
1019.562	0.005219807
1019.873	-0.01572653
1020.183	-0.004099246
1020.494	0.02272879
1020.804	0.00450436
1021.115	0.01336428
1021.425	0.06995921
